File: data/Dy_deconvoluated_TGA.csv
temperature,rate_3,rate_10,rate_5,rate_3_diff,rate_3_diff_reaction_0,rate_3_diff_reaction_1,rate_3_diff_reaction_2,rate_3_diff_reaction_3,rate_3_diff_cumulative,rate_5_diff,rate_5_diff_reaction_0,rate_5_diff_reaction_1,rate_5_diff_reaction_2,rate_5_diff_reaction_3,rate_5_diff_cumulative,rate_10_diff,rate_10_diff_reaction_0,rate_10_diff_reaction_1,rate_10_diff_reaction_2,rate_10_diff_reaction_3,rate_10_diff_cumulative
31.63192,99.99894,99.96317,100.076,-8.37775e-05,0.000143658,9.8096e-17,0.000893215,5.78137e-05,0.00109469,0.0325895,0.00326064,7.50602e-10,0.000328678,2.42664e-05,0.00361358,-0.008095,0.000718724,7.3496e-13,0.00150237,5.43664e-05,0.00227546
42.13598,99.99517,99.9945,100.038,-0.00194264,0.000176644,3.2893e-15,0.00103159,6.62027e-05,0.00127444,-0.00134036,0.00380816,3.78996e-09,0.00038053,2.78123e-05,0.00421651,0.00117284,0.000839858,7.20524e-12,0.00169502,6.15811e-05,0.00259646
52.64005,99.99656,99.9918,100.046,0.00359718,0.000218663,9.18402e-14,0.00119548,7.60251e-05,0.00149016,-0.00418888,0.00446648,1.78211e-08,0.000442076,3.19657e-05,0.00494054,0.00393225,0.000985439,6.37154e-11,0.00191709,6.9921e-05,0.00297245
63.14411,100.017,99.9925,100.046,-0.00490617,0.000272633,2.1352e-12,0.00139039,8.75658e-05,0.00175059,0.000293171,0.00526222,7.80379e-08,0.000515437,3.68473e-05,0.00581459,-0.00137711,0.00116129,5.08217e-10,0.00217385,7.95895e-05,0.00341474
73.64818,100.034,99.98695,100.06,0.00252378,0.000342575,4.13355e-11,0.00162326,0.000101175,0.00206701,0.00388517,0.0062295,3.18238e-07,0.000603274,4.26051e-05,0.0068757,0.000973909,0.00137488,3.6565e-09,0.00247167,9.08327e-05,0.00393738
84.15224,100.008,99.98913,100.053,-0.00336148,0.000434096,6.6632e-10,0.00190278,0.000117285,0.00245416,0.00397945,0.00741238,1.20857e-06,0.000708938,4.94217e-05,0.00817194,-0.00042413,0.00163578,2.37297e-08,0.00281826,0.000103949,0.00455802
94.65631,100.014,99.98955,100.05,-0.00215205,0.000555119,8.94378e-09,0.00223998,0.000136432,0.00293154,-0.0,0.00886821,4.2743e-06,0.000836684,5.75238e-05,0.00976669,-0.000397923,0.00195647,1.38908e-07,0.00322304,0.000119302,0.00529895
105.16,100.028,99.96572,100.025,-0.00847724,0.000717002,9.9962e-08,0.00264893,0.000159287,0.00352532,0.00078545,0.0106723,1.40777e-05,0.000991949,6.71935e-05,0.0117456,0.00399512,0.00235324,7.33457e-07,0.00369753,0.000137335,0.00618884
115.664,100.018,99.95489,100.035,-0.00162843,0.000936278,9.30309e-07,0.00314771,0.00018669,0.00427161,0.00104721,0.0129246,4.31791e-05,0.00118173,7.87849e-05,0.0142283,-0.00157084,0.00284765,3.49327e-06,0.00425591,0.000158596,0.00726565
126.1685,99.99029,99.95403,100.023,0.00170178,0.00123743,7.20933e-06,0.00375976,0.000219703,0.0052241,0.00083778,0.0157585,0.000123336,0.0014151,9.27439e-05,0.0173897,-0.000219917,0.0034684,1.50072e-05,0.00491572,0.000183761,0.0085829
136.673,99.9507,99.93487,100.012,0.00670215,0.00165743,4.65202e-05,0.00451565,0.000259676,0.00647927,0.00104198,0.0193549,0.000328078,0.00170392,0.000109636,0.0214965,0.00681213,0.00425423,5.81536e-05,0.00569879,0.000213667,0.0102248
147.177,99.92484,99.92142,99.9848,0.0046967,0.00225324,0.000249956,0.00545567,0.000308336,0.00826721,0.00209442,0.0239604,0.000812716,0.00206385,0.000130185,0.0269672,0.00459728,0.00525788,0.000203266,0.0066324,0.000249363,0.0123429
157.6807,99.86415,99.88548,99.92042,0.00405798,0.00311479,0.00111831,0.00663343,0.000367909,0.0112344,0.00544548,0.0299164,0.00187489,0.00251573,0.000155318,0.0344623,0.00351341,0.00655208,0.000640859,0.00775096,0.000292164,0.0152361
168.185,99.74148,99.83576,99.86912,0.0151899,0.00438777,0.0041662,0.0081209,0.000441289,0.0171161,0.00744565,0.0376998,0.00402796,0.00308758,0.00018624,0.0450016,0.00628328,0.00823845,0.00182251,0.00909804,0.000343736,0.0195027
178.689,99.54008,99.75882,99.73405,0.0369614,0.00631542,0.0129239,0.0100159,0.000532265,0.0297874,0.0186143,0.047985,0.00805876,0.00381753,0.000224521,0.0600858,0.00612097,0.0104608,0.00467509,0.0107292,0.000406194,0.0262713
189.193,99.05285,99.6668,99.45144,0.0662049,0.00931781,0.0333829,0.0124527,0.000645845,0.0557992,0.0347098,0.0617347,0.015015,0.00475803,0.000272231,0.08178,0.0137814,0.0134259,0.0108173,0.0127161,0.000482253,0.0374415
199.697,98.20437,99.4926,98.9156,0.11068,0.014149,0.0718013,0.0156183,0.000788713,0.102357,0.0649692,0.0803327,0.0260529,0.00598219,0.000332118,0.1127,0.0237194,0.0174352,0.0225766,0.0151512,0.000575414,0.0557383
210.201,96.64434,99.04412,97.91364,0.200903,0.0222237,0.128593,0.0197764,0.000969876,0.171563,0.126194,0.105766,0.0420979,0.00759329,0.000407872,0.155865,0.0658278,0.0229355,0.0425018,0.0181555,0.000690237,0.084283
220.705,94.21285,98.21062,96.25151,0.284491,0.036331,0.191769,0.0253042,0.00120161,0.254606,0.195321,0.140831,0.0633489,0.00973949,0.000504494,0.214424,0.125959,0.030599,0.0721717,0.0218884,0.000832702,0.125492
231.209,90.9467,96.74122,93.78792,0.325217,0.0622659,0.238132,0.0327502,0.00150086,0.334649,0.25885,0.189195,0.0887751,0.0126368,0.000628841,0.291236,0.173707,0.0414496,0.110544,0.0265614,0.00101073,0.179566
241.713,86.96334,94.68735,90.71112,0.408544,0.112575,0.246226,0.0429237,0.00189127,0.403616,0.360482,0.254501,0.115856,0.0166059,0.000790435,0.387753,0.22458,0.0570535,0.152728,0.0324583,0.00123492,0.243474
252.217,82.16853,92.05781,85.96906,0.518041,0.212974,0.211995,0.0570393,0.00240638,0.484414,0.5249,0.335063,0.140804,0.0221315,0.00100267,0.499001,0.274082,0.0797653,0.19033,0.0399627,0.00151959,0.311578
262.721,76.10454,88.86766,80.10187,0.622757,0.367179,0.151983,0.0769465,0.00309443,0.599203,0.587932,0.398862,0.159364,0.0299621,0.00128467,0.589472,0.344753,0.112826,0.213948,0.0495976,0.0018843,0.378256
273.225,70.94555,84.79461,74.03804,0.208144,0.0,0.0907283,0.105491,0.004026,0.200245,0.543719,0.281763,0.167972,0.0412774,0.00166416,0.492676,0.439338,0.159059,0.21693,0.0620811,0.00235614,0.440427
283.729,68.6741,79.88261,69.79405,0.242676,0.0,0.045099,0.14704,0.00530622,0.197445,0.232293,0.0,0.164876,0.0579741,0.00218206,0.225032,0.487473,0.21112,0.1984,0.0784032,0.00297307,0.490896
294.234,65.8823,74.84831,67.26146,0.292445,0.0,0.0186667,0.208032,0.00709484,0.233793,0.252284,0.0,0.150713,0.0831464,0.00289994,0.23676,0.457308,0.19462,0.163672,0.0999253,0.00378909,0.462006
304.738,62.51079,70.88496,64.46894,0.3469,0.0,0.00643347,0.296367,0.00963976,0.31244,0.272621,0.0,0.128298,0.121824,0.00391237,0.254035,0.275962,0.0,0.121791,0.128489,0.00488218,0.255162
315.242,58.44321,68.36367,61.34036,0.418357,0.0,0.00184629,0.412635,0.0133343,0.427815,0.327746,0.0,0.10171,0.181653,0.00536811,0.288731,0.246299,0.0,0.0817462,0.166464,0.0063669,0.254577
325.746,53.61837,65.561,57.75045,0.499584,0.0,0.000441197,0.492562,0.0188167,0.51182,0.366823,0.0,0.0750892,0.270299,0.00750715,0.352895,0.292387,0.0,0.0494915,0.216451,0.00841453,0.274357
336.2498,49.45326,62.31992,53.62887,0.0289502,0.0,8.77893e-05,0.148188,0.0271417,0.175417,0.410811,0.0,0.0516258,0.365483,0.0107276,0.427836,0.332899,0.0,0.0270273,0.279648,0.0112861,0.317962
346.754,49.05141,58.61133,49.55302,0.0557013,0.0,1.45455e-05,0.0,0.0400626,0.0400771,0.252981,0.0,0.0330544,0.201038,0.015709,0.249802,0.374075,0.0,0.0133133,0.34917,0.0153868,0.37787
357.258,48.38858,54.46106,48.95381,0.074127,0.0,2.00674e-06,0.0,0.0603767,0.0603787,0.0418414,0.0,0.0197091,0.0,0.0236437,0.0433528,0.395302,0.0,0.00591534,0.384637,0.0213578,0.41191
367.762,47.53977,50.5495,48.44576,0.0920763,0.0,2.30531e-07,0.0,0.0915187,0.0915189,0.0562092,0.0,0.010944,0.0,0.0366552,0.0475993,0.299382,0.0,0.00237074,0.234097,0.0302246,0.266692
378.266,46.42206,49.27104,47.73563,0.11678,0.0,2.2052e-08,0.0,0.129624,0.129624,0.0829498,0.0,0.00565928,0.0,0.0583981,0.0640574,0.0506485,0.0,0.000857033,0.0,0.043618,0.044475
388.77,45.05182,48.57361,46.82038,0.124472,0.0,1.75647e-09,0.0,0.0970847,0.0970847,0.0959142,0.0,0.00272533,0.0,0.0934438,0.0961691,0.0753522,0.0,0.000279461,0.0,0.0639612,0.0642406
399.274,44.87107,47.67915,45.65417,0.00108384,0.0,1.16497e-10,0.0,0.0,1.16497e-10,0.12433,0.0,0.00122223,0.0,0.129637,0.130859,0.09704,0.0,8.21971e-05,0.0,0.0937009,0.0937831
409.778,44.84279,46.53218,44.71299,0.0003613,0.0,6.4337e-12,0.0,0.0,6.4337e-12,0.00870753,0.0,0.000510454,0.0,0.00632515,0.0068356,0.121204,0.0,2.18073e-05,0.0,0.127261,0.127283
420.282,44.80004,45.24093,44.6718,0.00685928,0.0,2.9586e-13,0.0,0.0,2.9586e-13,0.000863938,0.0,0.000198534,0.0,0.0,0.000198534,0.12,0.0,5.21863e-06,0.0,0.0953572,0.0953624
430.786,44.75312,45.01756,44.62861,0.00396891,0.0,1.13289e-14,0.0,0.0,1.13289e-14,0.00419404,0.0,7.19099e-05,0.0,0.0,7.19099e-05,-0.00400561,0.0,1.12648e-06,0.0,0.0,1.12648e-06
441.29,44.71281,44.99607,44.60422,0.00180644,0.0,3.61217e-16,0.0,0.0,3.61217e-16,-0.000979199,0.0,2.42558e-05,0.0,0.0,2.42558e-05,0.00266518,0.0,2.1933e-07,0.0,0.0,2.1933e-07
451.795,44.69074,44.9923,44.55424,0.00361292,0.0,9.5901e-18,0.0,0.0,9.5901e-18,0.00439828,0.0,7.61931e-06,0.0,0.0,7.61931e-06,0.00262329,0.0,3.85197e-08,0.0,0.0,3.85197e-08
462.299,44.65109,44.97853,44.52425,0.00761329,0.0,2.1201e-19,0.0,0.0,2.1201e-19,0.00351864,0.0,2.2289e-06,0.0,0.0,2.2289e-06,0.00240337,0.0,6.10211e-09,0.0,0.0,6.10211e-09
472.803,44.62178,44.96136,44.50105,0.00146609,0.0,3.90271e-21,0.0,0.0,3.90271e-21,0.00316255,0.0,6.07208e-07,0.0,0.0,6.07208e-07,0.00109435,0.0,8.71939e-10,0.0,0.0,8.71939e-10
483.307,44.58178,44.9452,44.46906,0.00505285,0.0,5.98212e-23,0.0,0.0,5.98212e-23,0.00216252,0.0,1.54049e-07,0.0,0.0,1.54049e-07,0.000141374,0.0,1.12384e-10,0.0,0.0,1.12384e-10
493.811,44.55075,44.92792,44.42867,0.00315739,0.0,7.63516e-25,0.0,0.0,7.63516e-25,0.00545598,0.0,3.6396e-08,0.0,0.0,3.6396e-08,4.49629e-09,0.0,1.30656e-11,0.0,0.0,1.30656e-11
500.495,44.53659,44.91998,44.39879,-0.0,0.0,4.32633e-26,0.0,0.0,4.32633e-26,0.00491146,0.0,1.40024e-08,0.0,0.0,1.40024e-08,-0.0,0.0,3.14834e-12,0.0,0.0,3.14834e-12