File: data/Ho_deconvoluated_TGA.csv
temperature,rate_3,rate_5,rate_10,rate_3_diff,rate_3_diff_reaction_0,rate_3_diff_reaction_1,rate_3_diff_reaction_2,rate_3_diff_reaction_3,rate_3_diff_cumulative,rate_5_diff,rate_5_diff_reaction_0,rate_5_diff_reaction_1,rate_5_diff_reaction_2,rate_5_diff_reaction_3,rate_5_diff_cumulative,rate_10_diff,rate_10_diff_reaction_0,rate_10_diff_reaction_1,rate_10_diff_reaction_2,rate_10_diff_reaction_3,rate_10_diff_cumulative
31.02392,99.50304,100.406,99.36246,-0.004995235,7.6e-25,0.000630288,0.000320683,3.25e-05,0.000983454,-0.0144307,4.53e-05,4.68e-67,2.74e-05,9.47e-80,7.27e-05,-0.0772534,1.72971e-56,0.00204283,0.000900559,2.91607e-05,0.00297255
40.57307,99.54767,100.435,99.50349,-0.007215358,1.04e-22,0.000743256,0.000369261,3.71e-05,0.001149574,0.002649425,8.42e-05,3.37e-154,3.19e-05,9.46e-74,0.000116153,-0.00657639,8.74426e-52,0.00232092,0.0010091,3.29009e-05,0.00336292
50.12222,99.57977,100.4568,99.53124,-0.002371965,1.12e-20,0.000880316,0.000426527,4.24e-05,0.001349231,0.007466622,0.000153087,1.31e-277,3.72e-05,5.46e-68,0.000190312,-0.0043459,2.71807e-47,0.00264416,0.00113313,3.72021e-05,0.00381449
59.67137,99.59156,100.462,99.54499,-0.00949827,9.61e-19,0.001047509,0.000494294,4.86e-05,0.00159042,0.003654796,0.000271665,0.0,4.36e-05,1.83e-62,0.000315249,0.00416264,5.19498e-43,0.00302119,0.00127522,4.21615e-05,0.00433857
69.22052,99.60908,100.464,99.53552,0.001057686,6.48e-17,0.001252634,0.000574809,5.59e-05,0.001883366,-0.004052714,0.000470809,0.0,5.12e-05,3.53e-57,0.000522024,-0.00212589,6.10512e-39,0.00346253,0.00143845,4.78955e-05,0.00494887
78.76967,99.63023,100.456,99.56352,-0.004513433,3.46e-15,0.001505848,0.000670878,6.45e-05,0.002241245,-0.002597103,0.000796836,0.0,6.04e-05,3.94e-52,0.000857251,-0.00253946,4.41154e-35,0.00398111,0.00162651,5.45443e-05,0.00566216
88.31882,99.62065,100.453,99.55385,0.004686264,1.46e-13,0.001820479,0.000786021,7.47e-05,0.002681173,0.003591881,0.001317064,0.0,7.16e-05,2.55e-47,0.001388625,0.000418881,1.96008e-31,0.00459291,0.0018438,6.22771e-05,0.00649899
97.86797,99.64334,100.563,99.54766,-0.005801652,4.84e-12,0.002214182,0.000924679,8.67e-05,0.003225574,-0.00596384,0.002125979,0.0,8.51e-05,9.54e-43,0.002211106,0.000329844,5.35479e-28,0.00531773,0.00209568,7.12988e-05,0.0074847
107.417,99.64937,100.379,99.55278,0.003691406,1.27e-10,0.002710566,0.001092496,0.000101046,0.003904108,-0.008173511,0.003351386,0.0,0.00010173,2.07e-38,0.003453117,0.00385376,8.99492e-25,0.00618028,0.00238858,8.18591e-05,0.00865072
116.966,99.65,100.4305,99.55556,-0.002408554,2.64e-09,0.003341523,0.001296691,0.000118183,0.0047564,0.0,0.005159456,0.0,0.000122161,2.58e-34,0.005281617,0.00325685,9.2905e-22,0.00721161,0.00273038,9.42632e-05,0.0100363
126.515,99.63678,100.362,99.56521,0.002377167,4.33e-08,0.004150628,0.001546564,0.000138764,0.005836,-0.000424113,0.007757057,0.0,0.000147453,1.87e-30,0.00790451,0.00249239,5.90021e-19,0.00845093,0.00313068,0.000108886,0.0116905
136.065,99.57429,100.36,99.53005,0.008136847,5.62e-07,0.005198126,0.001854191,0.0001636,0.007216479,0.002083959,0.0113895,0.0,0.00017896,7.84e-27,0.0115684,0.00860806,2.304e-16,0.00994813,0.00360128,0.000126189,0.0136756
145.614,99.532,100.318,99.55044,-0.002586562,5.75e-06,0.006568415,0.002235378,0.000193724,0.009003266,0.006304187,0.0163314,0.0,0.000218476,1.9e-23,0.0165499,0.00533555,5.53201e-14,0.0117672,0.00415676,0.000146748,0.0160707
155.163,99.46146,100.284,99.51479,0.000518371,4.65e-05,0.008381415,0.002711003,0.000230458,0.0113694,-0.000670228,0.0228696,0.0,0.000268395,2.66e-20,0.023138,0.00383281,8.16714e-12,0.0139906,0.0048152,0.000171279,0.0189771
164.712,99.35768,100.193,99.47234,0.012399,0.000297051,0.0108102,0.003308902,0.00027551,0.01469165,0.01365044,0.0312757,0.0,0.000331948,2.16e-17,0.0316076,0.00414697,7.41384e-10,0.0167258,0.00559921,0.000200678,0.0225257
174.261,99.2397,100.088,99.42929,0.014221,0.001499363,0.0141088,0.004066565,0.000331099,0.0200058,0.0173576,0.0417704,0.0,0.000413536,1.01e-14,0.0421839,0.011289,4.13812e-08,0.0201139,0.00653717,0.000236081,0.0268872
183.81,99.02721,99.93811,99.32242,0.0257196,0.005978794,0.018657,0.005035047,0.000400141,0.030071,0.0193525,0.0544809,0.0,0.000519229,2.74e-12,0.05500013,0.014949,1.4202e-06,0.0243415,0.007665,0.000278927,0.0322869
193.359,98.68273,99.7407,99.22209,0.0535755,0.0188343,0.02503464,0.006284702,0.000486492,0.05064018,0.0223475,0.0693959,0.0,0.000657491,4.3e-10,0.0700534,0.0139908,2.99697e-05,0.0296583,0.00902839,0.000331057,0.0390478
202.909,97.97921,99.39578,99.04719,0.100182,0.0468725,0.03414643,0.007913732,0.000595304,0.0895279,0.0523555,0.086325,0.0,0.000840296,3.9e-08,0.0871654,0.0266778,0.000388867,0.0364012,0.010686,0.000394845,0.0478709
212.458,96.75081,98.73009,98.69522,0.158941,0.0921542,0.0474387,0.0100611,0.000733533,0.150388,0.0966107,0.104871,0.0,0.001084818,2.05e-06,0.105957,0.0530571,0.00310246,0.045029,0.0127135,0.000473369,0.0613183
222.007,94.80988,97.58387,98.02279,0.253986,0.143134,0.0672835,0.0129267,0.000910672,0.224255,0.154705,0.124418,0.0,0.00141609,6.22e-05,0.125897,0.0862853,0.0152194,0.0561732,0.0152096,0.000570661,0.0871728
231.556,92.12396,95.83412,96.87135,0.308776,0.175631,0.0976697,0.0168022,0.001139834,0.291243,0.210642,0.144155,0.0,0.001871245,0.001093137,0.147119,0.159517,0.0459067,0.0707096,0.018304,0.000692043,0.135612
241.105,88.96292,93.42529,95.13618,0.343292,0.170251,0.145442,0.0221219,0.001439367,0.339254,0.281104,0.163112,0.0,0.002506432,0.0111058,0.176724,0.202652,0.0851414,0.0898615,0.0221686,0.000844608,0.198016
250.654,85.54362,90.71639,92.96798,0.36764,0.130379,0.22234,0.0295443,0.00183531,0.384098,0.290057,0.180243,0.0,0.0034084,0.0652663,0.248918,0.253169,0.0970938,0.115339,0.0270333,0.00103791,0.240504
260.204,81.24646,87.15127,90.45988,0.525869,0.078878,0.346864,0.0400898,0.002365191,0.468197,0.465251,0.194511,0.0,0.004714419,0.221864,0.421089,0.268202,0.0680814,0.149509,0.0332091,0.00128495,0.252085
269.753,75.49179,81.98911,87.90678,0.678772,0.0376994,0.53312,0.05537439,0.003084012,0.629278,0.606064,0.204995,0.0,0.006647624,0.436258,0.647901,0.283455,0.029353,0.195534,0.0411202,0.00160364,0.267611
279.302,68.37486,75.60121,85.04459,0.773173,0.0142346,0.646498,0.0780146,0.00407389,0.742821,0.722028,0.210987,0.0,0.009581891,0.496205,0.716774,0.338679,0.00778148,0.257172,0.0513515,0.00201898,0.318324
288.851,63.34082,68.71397,81.34136,0.167654,0.004246031,0.0,0.112328,0.005459933,0.122034,0.694816,0.212072,0.0,0.0141656,0.326466,0.552704,0.453957,0.00126841,0.33712,0.0647161,0.00256632,0.405671
298.4,61.29655,63.75733,76.57242,0.237225,0.001000582,0.0,0.165481,0.007437018,0.173919,0.20439,0.208172,0.0,0.0215675,0.124244,0.353984,0.546588,0.000127128,0.429478,0.0823531,0.00329647,0.515255
307.949,58.52887,62.18764,71.02787,0.331946,0.000186274,0.0,0.248939,0.0103161,0.259441,0.196651,0.199562,0.0,0.0339881,0.027351,0.260901,0.589424,7.83447e-06,0.488951,0.105862,0.00428359,0.599104
317.498,54.91519,60.05484,65.77707,0.427886,2.74e-05,0.0,0.377112,0.0146063,0.391746,0.256395,0.18683,0.0,0.0557672,0.003482821,0.24608,0.484561,2.96869e-07,0.324479,0.13747,0.00563797,0.467587
327.048,50.21467,57.31353,62.98979,0.545797,3.18e-06,0.0,0.537641,0.0211628,0.558807,0.31641,0.170816,0.0,0.0958178,0.000256536,0.26689,0.203369,6.91682e-09,0.0,0.180182,0.00752683,0.187709
336.597,44.77394,53.87169,60.78883,0.500358,2.92e-07,0.0,0.438933,0.0314548,0.470388,0.402863,0.152519,0.0,0.172338,1.09e-05,0.324867,0.27038,9.90911e-11,0.0,0.23766,0.0102091,0.247869
346.146,43.68661,49.63438,57.85725,0.0582198,2.12e-08,0.0,0.0,0.04802,0.04802,0.472047,0.132994,0.0,0.31033,2.69e-07,0.443324,0.345895,8.72869e-13,0.0,0.312818,0.0140948,0.326913
355.695,42.97275,45.20679,54.13787,0.0936732,1.21e-09,0.0,0.0,0.07498937,0.0749894,0.382866,0.113254,0.0,0.309054,3.84e-09,0.422308,0.416299,4.7277e-15,0.0,0.401228,0.0198479,0.421076
365.244,42.00641,44.12264,49.75904,0.122864,5.49e-11,0.0,0.0,0.116577,0.116577,0.0683098,0.09418716,0.0,0.0,3.17e-11,0.09418716,0.477676,1.57448e-17,0.0,0.46355,0.0285655,0.492115
374.793,40.73091,43.31378,45.41825,0.1476,1.96e-12,0.0,0.0,0.153235,0.153235,0.0956001,0.0764966,0.0,0.0,1.51e-13,0.0764966,0.393862,3.22411e-20,0.0,0.326162,0.0420769,0.368239
384.342,39.8005,42.26292,43.93294,0.005796339,5.55e-14,0.0,0.0,0.004063501,0.004063501,0.122152,0.0606745,0.0,0.0,4.17e-16,0.0606745,0.0732056,4.05948e-23,0.0,0.0,0.0633481,0.0633481
393.892,39.7335,40.96348,43.04031,0.00553979,1.24e-15,0.0,0.0,0.0,1.24e-15,0.145207,0.0469985,0.0,0.0,6.65e-19,0.0469985,0.111329,3.1428e-26,0.0,0.0,0.0963437,0.0963437
403.441,39.67761,40.21089,41.88855,0.002995057,2.18e-17,0.0,0.0,0.0,2.18e-17,0.00255517,0.035553,0.0,0.0,6.14e-22,0.035553,0.133593,1.49606e-29,0.0,0.0,0.139766,0.139766
412.99,39.64282,40.13953,40.51883,0.00341936,3.04e-19,0.0,0.0,0.0,3.04e-19,0.0107078,0.0262652,0.0,0.0,3.28e-25,0.0262652,0.131164,4.37892e-33,0.0,0.0,0.130684,0.130684
422.539,39.56071,40.03548,40.08875,0.005361722,3.34e-21,0.0,0.0,0.0,3.34e-21,0.0151322,0.0189496,0.0,0.0,1.01e-28,0.0189496,0.00742999,7.88084e-37,0.0,0.0,0.0,7.88084e-37
432.088,39.49773,39.9747,40.06958,0.009362025,2.91e-23,0.0,0.0,0.0,2.91e-23,0.006780712,0.0133516,0.0,0.0,1.81e-32,0.0133516,-0.00503705,8.72096e-41,0.0,0.0,0.0,8.72096e-41
441.637,39.4437,39.90799,40.02093,0.005806936,1.99e-25,0.0,0.0,0.0,1.99e-25,0.000214681,0.009187139,0.0,0.0,1.87e-36,0.009187139,0.00648753,5.93393e-45,0.0,0.0,0.0,5.93393e-45
451.187,39.38038,39.84294,39.98754,0.000261685,1.08e-27,0.0,0.0,0.0,1.08e-27,0.002555144,0.006173632,0.0,0.0,1.12e-40,0.006173632,-0.000921545,2.4826e-49,0.0,0.0,0.0,2.4826e-49
460.736,39.39179,39.7944,39.9666,0.0199861,4.64e-30,0.0,0.0,0.0,4.64e-30,0.004466395,0.004051491,0.0,0.0,3.87e-45,0.004051491,0.00296886,6.38641e-54,0.0,0.0,0.0,6.38641e-54
470.285,39.27256,39.74715,39.94175,0.0142421,1.57e-32,0.0,0.0,0.0,1.57e-32,0.005099944,0.002596586,0.0,0.0,7.74e-50,0.002596586,0.00623093,1.01017e-58,0.0,0.0,0.0,1.01017e-58
479.834,39.19847,39.68407,39.92987,0.008691909,4.2e-35,0.0,0.0,0.0,4.2e-35,0.00852955,0.001625191,0.0,0.0,8.95e-55,0.001625191,0.00111528,9.82466e-64,0.0,0.0,0.0,9.82466e-64
489.383,39.14559,39.61893,39.92414,0.0109591,8.87e-38,0.0,0.0,0.0,8.87e-38,0.011556,0.00099339,0.0,0.0,5.99e-60,0.00099339,0.000293223,5.87526e-69,0.0,0.0,0.0,5.87526e-69
497.977,39.09472,39.57415,39.90602,0.0212271,2.84e-40,0.0,0.0,0.0,2.84e-40,0.002555215,0.000625056,0.0,0.0,8.27e-65,0.000625056,-0.0,7.71758e-74,0.0,0.0,0.0,7.71758e-74