File: data/NH4_deconvoluated_TGA.csv
temperature,rate_5,rate_3,rate_10,rate_3_diff,rate_5_diff,rate_10_diff,rate_3_diff_reaction_0,rate_3_diff_reaction_1,rate_3_diff_cumulative,rate_3_diff_diff,rate_5_diff_reaction_0,rate_5_diff_reaction_1,rate_5_diff_cumulative,rate_10_diff_reaction_0,rate_10_diff_reaction_1,rate_10_diff_cumulative,rate_10_diff_diff
31.23291,100.48,99.4638,99.6231,0.0,0.0,0.0,0.0,6.84767e-09,6.84767e-09,-0.0,0.0,6.74252e-11,6.74252e-11,0.0,5.45708e-12,5.45708e-12,-0.0
38.87223,100.521,99.48353,99.68218,0.0,0.0,0.0,0.0,8.83386e-09,8.83386e-09,-0.0,0.0,9.41809e-11,9.41809e-11,0.0,7.99401e-12,7.99401e-12,-0.0
46.51155,100.505,99.48288,99.69812,0.0,0.0,0.0,0.0,1.14372e-08,1.14372e-08,-0.0,0.0,1.32069e-10,1.32069e-10,0.0,1.17497e-11,1.17497e-11,-0.0
54.15087,100.5,99.48243,99.69756,0.0,0.0,0.0,0.0,1.4863e-08,1.4863e-08,-0.0,0.0,1.85942e-10,1.85942e-10,0.0,1.73292e-11,1.73292e-11,-0.0
61.79019,100.512,99.51169,99.7027,0.0,0.0,0.0,0.0,1.93891e-08,1.93891e-08,-0.0,0.0,2.62871e-10,2.62871e-10,0.0,2.56473e-11,2.56473e-11,-0.0
69.42951,100.51,99.50573,99.70066,0.0,0.0,0.0,0.0,2.5394e-08,2.5394e-08,-0.0,0.0,3.73201e-10,3.73201e-10,0.0,3.8093e-11,3.8093e-11,-0.0
77.06883,100.507,99.51943,99.71946,0.0,0.0,0.0,0.0,3.33955e-08,3.33955e-08,-0.0,0.0,5.32145e-10,5.32145e-10,0.0,5.67833e-11,5.67833e-11,-0.0
84.70815,100.5042,99.52401,99.71234,0.0,0.0,0.0,0.0,4.41049e-08,4.41049e-08,-0.0,0.0,7.62174e-10,7.62174e-10,0.0,8.49559e-11,8.49559e-11,-0.0
92.34747,100.509,99.53222,99.72662,0.0,0.0,0.0,0.0,5.85053e-08,5.85053e-08,-0.0,0.0,1.09666e-09,1.09666e-09,0.0,1.27584e-10,1.27584e-10,-0.0
99.98679,100.523,99.52902,99.71651,0.0,0.0,0.0,0.0,7.79618e-08,7.79618e-08,-0.0,0.0,1.58539e-09,1.58539e-09,0.0,1.92334e-10,1.92334e-10,-0.0
107.626,100.536,99.52628,99.71995,0.0,0.0,0.0,0.0,1.0438e-07,1.0438e-07,-0.0,0.0,2.30307e-09,2.30307e-09,0.0,2.91074e-10,2.91074e-10,-0.0
115.265,100.506,99.53679,99.72109,0.0,0.0,0.0,0.0,1.40438e-07,1.40438e-07,-0.0,0.0,3.3624e-09,3.3624e-09,0.0,4.42254e-10,4.42254e-10,-0.0
122.905,100.4968,99.52628,99.72993,0.0,0.0,0.0,0.0,1.89914e-07,1.89914e-07,-0.0,0.0,4.93427e-09,4.93427e-09,0.0,6.74669e-10,6.74669e-10,-0.0
130.544,100.488,99.51486,99.72995,0.0,0.0,0.0,0.0,2.58183e-07,2.58183e-07,-0.0,0.0,7.27939e-09,7.27939e-09,0.0,1.03345e-09,1.03345e-09,-0.0
138.183,100.478,99.51348,99.72407,0.0,0.0,0.0,0.0,3.52927e-07,3.52927e-07,-0.0,0.0,1.07978e-08,1.07978e-08,0.0,1.58967e-09,1.58967e-09,-0.0
145.823,100.462,99.49946,99.73746,0.0,0.0,0.0,0.0,4.85207e-07,4.85207e-07,-0.0,0.0,1.61071e-08,1.61071e-08,0.0,2.45565e-09,2.45565e-09,-0.0
153.462,100.447,99.49255,99.73663,0.0,0.0,0.0,0.0,6.71054e-07,6.71054e-07,-0.0,0.0,2.41664e-08,2.41664e-08,0.0,3.80981e-09,3.80981e-09,-0.0
161.101,100.433,99.46915,99.72825,0.0,0.0,0.0,0.0,9.33868e-07,9.33868e-07,-0.0,0.0,3.64754e-08,3.64754e-08,0.0,5.93676e-09,5.93676e-09,-0.0
168.741,100.391,99.40031,99.72825,0.0,0.0,0.0,0.0,1.30806e-06,1.30806e-06,-0.0,0.0,5.5394e-08,5.5394e-08,0.0,9.29256e-09,9.29256e-09,-0.0
176.38,100.345,99.33657,99.71355,0.0,0.0,0.0,0.0,1.84464e-06,1.84464e-06,-0.0,0.0,8.46609e-08,8.46609e-08,0.0,1.46114e-08,1.46114e-08,-0.0
184.019,100.288,99.21015,99.69388,0.0,0.0,0.0,0.0,2.6198e-06,2.6198e-06,-0.0,0.0,1.30241e-07,1.30241e-07,0.0,2.30808e-08,2.30808e-08,-0.0
191.659,100.2,99.05569,99.66266,0.0,0.0,0.0,0.0,3.74833e-06,3.74833e-06,-0.0,0.0,2.0172e-07,2.0172e-07,0.0,3.663e-08,3.663e-08,-0.0
199.298,100.07,98.82377,99.6106,0.0,0.0,0.0,0.0,5.40472e-06,5.40472e-06,-0.0,0.0,3.14614e-07,3.14614e-07,0.0,5.8409e-08,5.8409e-08,-0.0
206.937,99.88424,98.49598,99.53554,0.0,0.0,0.0,0.0,7.85663e-06,7.85663e-06,-0.0,0.0,4.94232e-07,4.94232e-07,0.0,9.35847e-08,9.35847e-08,-0.0
214.577,99.62459,98.02667,99.43169,0.0,0.0,0.0,0.0,1.15186e-05,1.15186e-05,-0.0,0.0,7.82178e-07,7.82178e-07,0.0,1.50672e-07,1.50672e-07,-0.0
222.216,99.27461,97.35324,99.28228,0.0,0.0,0.0,0.0,1.70391e-05,1.70391e-05,-0.0,0.0,1.24739e-06,1.24739e-06,0.0,2.43772e-07,2.43772e-07,-0.0
229.855,98.77218,96.45885,99.06977,0.0,0.0,0.0,0.0,2.54432e-05,2.54432e-05,-0.0,0.0,2.00504e-06,2.00504e-06,0.0,3.96345e-07,3.96345e-07,-0.0
237.495,98.08414,95.22173,98.75559,0.0,0.0,0.0,0.0,3.83696e-05,3.83696e-05,-0.0,0.0,3.24912e-06,3.24912e-06,0.0,6.47606e-07,6.47606e-07,-0.0
245.134,97.13828,93.56928,98.30882,0.0,0.0,0.0,0.0,5.8467e-05,5.8467e-05,-0.0,0.0,5.30925e-06,5.30925e-06,0.0,1.06341e-06,1.06341e-06,-0.0
252.773,95.92095,91.36449,97.74969,0.0,0.0,0.0,0.0,9.00691e-05,9.00691e-05,-0.0,0.0,8.75026e-06,8.75026e-06,0.0,1.75484e-06,1.75484e-06,-0.0
260.413,94.28847,88.48251,96.9499,0.0,0.0,0.0,0.0,0.000140354,0.000140354,-0.0,0.0,1.45485e-05,1.45485e-05,0.0,2.91009e-06,2.91009e-06,-0.0
268.052,92.13673,84.69048,95.95109,0.0,0.0,0.0,0.0,0.000221366,0.000221366,-0.0,0.0,2.44065e-05,2.44065e-05,0.0,4.84935e-06,4.84935e-06,-0.0
275.691,89.39725,79.82123,94.60984,0.0,0.0,0.0,0.0,0.000353576,0.000353576,-0.0,0.0,4.13188e-05,4.13188e-05,0.0,8.11948e-06,8.11948e-06,-0.0
283.33,85.8422,73.62185,92.86816,0.0,0.0,0.0,0.0,0.000572257,0.000572257,-0.0,0.0,7.05972e-05,7.05972e-05,0.0,1.36578e-05,1.36578e-05,-0.0
290.97,81.33636,65.73334,90.59359,0.0,0.0,0.0,0.0,0.000938982,0.000938982,-0.0,0.0,0.00012174,0.00012174,0.0,2.3076e-05,2.3076e-05,-0.0
298.609,75.66877,55.98223,87.70344,0.0,0.0,0.0,0.0,0.00156264,0.00156264,-0.0,0.0,0.000211861,0.000211861,0.0,3.91524e-05,3.91524e-05,-0.0
306.248,68.58813,44.14667,84.06622,0.0,0.0,0.0,0.0,0.00263806,0.00263806,-0.0,0.0,0.000371993,0.000371993,0.0,6.66852e-05,6.66852e-05,-0.0
313.888,59.92364,30.63379,79.50309,0.0,0.0,0.0,0.0,0.00451703,0.00451703,-0.0,0.0,0.000658691,0.000658691,0.0,0.000113969,0.000113969,-0.0
321.527,49.66105,16.63637,73.85229,0.0,0.0,0.0,0.0,0.00783777,0.00783777,-0.0,0.0,0.00117532,0.00117532,0.0,0.00019534,0.00019534,-0.0
329.166,37.46863,7.85587,67.00937,0.0,0.0,0.0,0.00943378,0.0137531,0.0231869,-0.0220454,0.0,0.00211063,0.00211063,0.0,0.000335529,0.000335529,-0.0
336.806,24.41698,7.11347,58.67605,0.137766,0.0,0.0,0.115828,0.0243,0.140128,0.00484722,0.0,0.0038073,0.0038073,0.0,0.000577041,0.000577041,-0.0
344.445,11.90823,6.06958,49.38426,0.140484,0.0,0.0,0.099,0.0428625,0.141862,-0.006314,0.0,0.00687845,0.00687845,0.0,0.000992464,0.000992464,-0.0
352.084,9.09947,4.9674,38.95548,0.128483,0.0559734,0.0,0.0655705,0.0741864,0.139757,-0.000636061,0.0382071,0.0123901,0.0505972,0.0,0.00170452,0.00170452,-0.0
359.724,8.27337,3.79537,27.84142,0.170633,0.131624,0.0,0.0416108,0.121503,0.163114,-0.0026073,0.116894,0.0220982,0.138993,0.0,0.00291761,0.00291761,-0.0
367.363,7.19556,2.3809,16.50853,0.19707,0.138745,0.0,0.0265254,0.173173,0.199698,-0.00366832,0.101317,0.0386019,0.139919,0.0,0.0049649,0.0049649,-0.0
375.002,6.15029,0.89639,8.95686,0.166989,0.135892,0.0,0.0172077,0.170937,0.188144,0.00486367,0.0694699,0.0648952,0.134365,0.0,0.0083722,0.0083722,-0.0
382.642,5.06069,-0.18874,8.79906,0.0518635,0.16512,0.0540886,0.0113963,0.0492973,0.0606937,0.0386155,0.0448655,0.101959,0.146824,0.0342901,0.0139304,0.0482205,-0.0134998
390.281,3.81722,-0.23568,8.17952,0.00409448,0.169141,0.0897305,0.00770448,2.60722e-07,0.00770474,-0.000219331,0.0286918,0.142154,0.170846,0.0731252,0.0227417,0.0958669,-0.000405763
397.92,2.50062,-0.26084,7.45342,0.00239282,0.169889,0.100098,0.00531056,0.0,0.00531056,-0.00550522,0.0184881,0.159386,0.177874,0.0656363,0.0361509,0.101787,-0.00180948
405.56,1.30841,-0.28779,6.67719,-0.00573868,0.134394,0.103826,0.00372647,0.0,0.00372647,0.00387942,0.0120803,0.116578,0.128658,0.049093,0.0553787,0.104472,-0.0047732
413.199,0.61764,-0.28048,5.80588,-0.00526228,0.0288927,0.136682,0.00265799,0.0,0.00265799,-0.000496237,0.00802052,0.0327175,0.040738,0.0348937,0.08058,0.115474,-0.00625642
420.838,0.56234,-0.2951,4.79161,0.00191642,0.000455533,0.138751,0.00192435,0.0,0.00192435,0.00167788,0.00541221,0.000538744,0.00595095,0.0245301,0.109106,0.133636,0.00975202
428.478,0.55758,-0.31566,3.68318,0.00729377,-0.00183261,0.151998,0.0014123,0.0,0.0014123,-0.00275535,0.00370991,1.64293e-15,0.00370991,0.0173077,0.133399,0.150707,0.0150955
436.117,0.54486,-0.31886,2.58639,0.00454487,0.000685932,0.145374,0.00104949,0.0,0.00104949,-0.00175191,0.00258108,0.0,0.00258108,0.0123269,0.140717,0.153044,-0.00426873
443.756,0.54312,-0.32525,1.51537,-0.000476482,0.000685922,0.112602,0.000788847,0.0,0.000788847,-2.74164e-06,0.00182087,0.0,0.00182087,0.00888092,0.119141,0.128022,0.00713923
451.396,0.53529,-0.33839,0.67097,0.00188498,-0.00320449,0.0970086,0.000599195,0.0,0.000599195,6.30577e-05,0.00130131,0.0,0.00130131,0.0064756,0.0717186,0.0781943,0.00685684
459.035,0.53568,-0.33941,0.24251,-0.00334588,0.00091635,0.014771,0.000459572,0.0,0.000459572,-0.00225637,0.000941275,0.0,0.000941275,0.00477796,0.0246238,0.0294018,0.00916805
466.674,0.55579,-0.33667,0.21856,-0.00429363,-0.000685932,-0.00351864,0.000355658,0.0,0.000355658,-0.00338318,0.00068852,0.0,0.00068852,0.00356555,0.00307973,0.00664528,0.000474304
474.313,0.5488,-0.35266,0.22611,-0.00238762,0.00274891,0.00043983,0.000277541,0.0,0.000277541,-0.00053462,0.000508913,0.0,0.000508913,0.00268944,4.7179e-05,0.00273662,-0.000115149
481.953,0.55666,-0.35261,0.23048,0.00717344,-0.0050319,-0.00438256,0.000218264,0.0,0.000218264,0.00235233,0.000379831,0.0,0.000379831,0.00204908,2.2123e-09,0.00204908,0.00242087
489.592,0.54569,-0.33896,0.25081,0.00502131,0.00160224,-0.00112576,0.000172893,0.0,0.000172893,-0.00939012,0.000286071,0.0,0.000286071,0.00157592,6.49767e-32,0.00157592,-0.000227556
497.231,0.54006,-0.3522,0.25039,0.00485378,-0.00434597,-0.0,0.00013788,0.0,0.00013788,-0.005157,0.00021729,0.0,0.00021729,0.0012227,0.0,0.0012227,0.000411246
498.186,0.54093,-0.36151,0.25039,0.00974951,-0.000911071,-0.0,0.000134096,0.0,0.000134096,-0.00512684,0.000210067,0.0,0.000210067,0.00118522,0.0,0.00118522,-0.0